Filename	PLA
Instrument name	0850-00115
Operator	
rundate	2019/12/19
proceduresegments	DMA Oscillatory Temperature Ramp
[File Parameters]
Name	PLA
Instrument type	DMA850
Instrument serial number	0850-00115
Instrument name	0850-00115
Instrument location	MFG
Company name	TA
Trios version	4.4.0.41128
File name	D:\2019SJTU\密西根\朱宰亨\邹璧卉\1219 yp201979474\PLA.tri
Run date	2019/12/19 12:33:09
Preload Direction	-1.00000
Starting Force	0.00000
Starting Displacement	17254.8
Time at start of test	0.136161
[Clamp Parameters]
Geometry mass	21.42
Clamp Compliance	0.384603
Zero reference position	28.675
Tool mass calibration date	2019/12/2
Compliance calibration date	2019/12/2
[Firmware Versions]
InfoVerDsp	V2018.9.27
InfoVerWinCe	V2018.8.7
InfoVerDmaIface14	V2017.10.23
InfoVerDmaPower15	V2017.8.9
[Calibration Date Information]
InfoDateDynPhase	2018/11/9 14:33
InfoDateStaticNrm	2018/11/9 13:57
InfoDateTorqLag	2018/6/9 4:07
InfoDateADGain	2018/6/9 3:50
InfoDateInertiaPhase	2018/11/9 14:12
InfoDateInertiaMass	2018/6/11 20:32
InfoDateShaftMass	2018/6/9 3:26
InfoDateDmaForcePosn	2018/6/11 20:26
InfoDateDmaEncoderCorr	2018/6/11 20:30
InfoDateDmaInstStability	2018/11/9 13:52
InfoDateDmaTempOffset	2019/3/26 15:26
InfoDateDmaThermocoupleCal	2019/3/26 14:21
InfoDateSpare17	2018/6/9 3:23
[Calibration Parameters]
SPFrtScaleHi	1987.868
InfoOlStressTol	1.000e-2
InfoOlStressMaxCnt	0
InfoIntSpare8	0
Collect data only when stable	Enabled
Temperature option	None
[step]
Temperature Ramp - 1
Angular frequency	Step time	Temperature	Oscillation strain	Oscillation stress	Tan(delta)	Storage modulus	Loss modulus
rad/s	min	°C	%	MPa		MPa	MPa
6.28319	6.59967	-0.186	0.0438029	1.12739	0.0173747	2573.38	44.5714
6.28319	6.64967	-0.126	0.0438409	1.12705	0.0174332	2570.37	44.6165
6.28319	6.69967	-0.102	0.0437826	1.12670	0.0171175	2573.01	44.5460
6.28319	6.74967	-0.061	0.0437919	1.12737	0.0174556	2573.99	44.4554
6.28319	6.79967	-0.029	0.0438168	1.12786	0.0175412	2573.65	44.4417
6.28319	6.84967	0.007	0.0438157	1.12762	0.0169922	2573.19	44.3634
6.28319	6.89967	0.044	0.0438148	1.12655	0.0168490	2570.81	44.2862
6.28319	6.94967	0.121	0.0437904	1.12704	0.0176162	2573.31	44.1593
6.28319	6.99967	0.194	0.0438016	1.12749	0.0169019	2573.70	44.0471
6.28319	7.04967	0.303	0.0438314	1.12738	0.0171282	2571.70	43.8073
6.28319	7.09967	0.389	0.0437984	1.12687	0.0174098	2572.46	43.8331
6.28319	7.14967	0.453	0.0438243	1.12749	0.0164041	2572.41	43.7630
6.28319	7.19967	0.549	0.0438044	1.12613	0.0166440	2570.47	43.5617
6.28319	7.24967	0.670	0.0438254	1.12722	0.0170654	2571.69	43.6077
6.28319	7.29967	0.763	0.0437855	1.12649	0.0168616	2572.37	43.5775
6.28319	7.34967	0.833	0.0438389	1.12722	0.0168440	2570.92	43.6042
6.28319	7.39967	0.887	0.0437743	1.12569	0.0163622	2571.24	43.7901
6.28319	7.44967	0.970	0.0438194	1.12790	0.0174771	2573.59	43.7818
6.28319	7.49967	1.044	0.0438009	1.12698	0.0170455	2572.59	43.7073
6.28319	7.54967	1.133	0.0438253	1.12705	0.0164636	2571.33	43.7398
6.28319	7.59967	1.188	0.0438045	1.12631	0.0173888	2570.84	43.7735
6.28319	7.64967	1.269	0.0438142	1.12694	0.0167608	2571.73	43.6056
6.28319	7.69967	1.353	0.0438138	1.12707	0.0175356	2572.00	43.5420
6.28319	7.74967	1.425	0.0438212	1.12717	0.0180743	2571.79	43.4994
6.28319	7.79967	1.522	0.0437845	1.12653	0.0170551	2572.54	43.5494
6.28319	7.84967	1.618	0.0438179	1.12665	0.0170411	2570.83	43.4295
6.28319	7.89967	1.728	0.0437951	1.12670	0.0165680	2572.32	43.3363
6.28319	7.94967	1.852	0.0438343	1.12685	0.0169089	2570.34	43.4826
6.28319	7.99966	1.926	0.0438095	1.12568	0.0159738	2569.17	43.5276
6.28319	8.04967	2.028	0.0437923	1.12602	0.0164183	2570.93	43.5081
6.28319	8.09967	2.105	0.0438034	1.12555	0.0164345	2569.22	43.4289
6.28319	8.14967	2.192	0.0438281	1.12636	0.0166198	2569.60	43.1219
6.28319	8.19967	2.296	0.0438383	1.12525	0.0169946	2566.46	43.1141
6.28319	8.24967	2.452	0.0438038	1.12509	0.0166680	2568.13	43.1993
6.28319	8.29967	2.603	0.0437924	1.12470	0.0175367	2567.85	43.1487
6.28319	8.34967	2.725	0.0438460	1.12534	0.0175724	2566.18	43.1328
6.28319	8.39967	2.857	0.0437971	1.12452	0.0166410	2567.20	43.4763
6.28319	8.44967	2.984	0.0438471	1.12223	0.0172005	2559.04	43.5590
6.28319	8.49967	3.106	0.0437641	1.12363	0.0164465	2567.13	43.6557
6.28319	8.54967	3.259	0.0438197	1.12471	0.0172920	2566.28	43.6839
6.28319	8.59967	3.421	0.0438243	1.12372	0.0175818	2563.75	43.6332
6.28319	8.64967	3.577	0.0438196	1.12326	0.0160452	2563.05	43.7513
6.28319	8.69966	3.719	0.0438244	1.12231	0.0168957	2560.56	43.7140
6.28319	8.74966	3.882	0.0437719	1.12279	0.0180373	2564.67	43.6933
6.28319	8.79966	4.030	0.0438607	1.12319	0.0169374	2560.45	43.7431
6.28319	8.84967	4.181	0.0437988	1.12150	0.0170210	2560.20	43.7159
6.28319	8.89967	4.312	0.0437584	1.12272	0.0167326	2565.36	43.8279
6.28319	8.94967	4.459	0.0438492	1.12320	0.0167334	2561.15	43.7238
6.28319	8.99967	4.608	0.0438279	1.12175	0.0174393	2559.06	43.7091
6.28319	9.04967	4.783	0.0437864	1.12149	0.0173730	2560.89	43.8689
6.28319	9.09967	4.957	0.0438268	1.12197	0.0174695	2559.62	43.8718
6.28319	9.14967	5.123	0.0438154	1.12136	0.0169943	2558.91	43.5813
6.28319	9.19967	5.283	0.0438041	1.12129	0.0170432	2559.40	43.3934
6.28319	9.24967	5.431	0.0438308	1.12095	0.0171670	2557.07	43.3587
6.28319	9.29967	5.600	0.0438024	1.12022	0.0167359	2557.08	43.3914
6.28319	9.34967	5.767	0.0438280	1.12017	0.0176616	2555.44	43.4369
6.28319	9.39967	5.893	0.0438050	1.11992	0.0168757	2556.24	43.5462
6.28319	9.44967	6.079	0.0438127	1.11972	0.0169548	2555.32	43.4334
6.28319	9.49967	6.297	0.0438007	1.11894	0.0164010	2554.26	43.4548
6.28319	9.54967	6.486	0.0438383	1.11991	0.0159064	2554.30	43.4535
6.28319	9.59967	6.679	0.0438194	1.11857	0.0167845	2552.32	43.3461
6.28319	9.64967	6.850	0.0437930	1.11780	0.0170056	2552.10	43.3823
6.28319	9.69967	6.998	0.0438305	1.11820	0.0170514	2550.82	43.4028
6.28319	9.74967	7.147	0.0437661	1.11738	0.0181702	2552.64	43.2909
6.28319	9.79966	7.326	0.0438583	1.11846	0.0168249	2549.80	43.3778
6.28319	9.84966	7.518	0.0438269	1.11594	0.0177525	2545.84	43.2667
6.28319	9.89966	7.678	0.0438399	1.11493	0.0170639	2542.81	43.4194
6.28319	9.94967	7.826	0.0437845	1.11512	0.0165103	2546.48	43.6007
6.28319	9.99967	8.024	0.0438372	1.11547	0.0174200	2544.18	43.6179
6.28319	10.0497	8.198	0.0437977	1.11435	0.0169980	2543.95	43.6358
6.28319	10.0997	8.391	0.0438194	1.11459	0.0171250	2543.22	43.3325
6.28319	10.1497	8.564	0.0438221	1.11381	0.0175029	2541.28	43.1672
6.28319	10.1997	8.772	0.0438046	1.11336	0.0163600	2541.32	43.1714
6.28319	10.2497	8.910	0.0438174	1.11387	0.0174000	2541.70	43.1344
6.28319	10.2997	9.100	0.0438274	1.11330	0.0169499	2539.82	43.1919
6.28319	10.3497	9.310	0.0438004	1.11205	0.0169911	2538.53	43.3665
6.28319	10.3997	9.449	0.0438083	1.11275	0.0171951	2539.66	43.4592
6.28319	10.4497	9.615	0.0438484	1.11136	0.0155078	2534.24	43.5099
6.28319	10.4997	9.771	0.0438289	1.11087	0.0172720	2534.18	43.4312
6.28319	10.5497	9.998	0.0438248	1.11026	0.0170676	2533.03	43.4159
6.28319	10.5997	10.173	0.0437811	1.10967	0.0174870	2534.19	43.4861
6.28319	10.6497	10.323	0.0438202	1.11073	0.0174713	2534.35	43.5243
6.28319	10.6997	10.476	0.0438373	1.10926	0.0176389	2530.01	43.7020
6.28319	10.7497	10.665	0.0438245	1.10880	0.0181023	2529.68	44.0339
6.28319	10.7997	10.847	0.0437937	1.10790	0.0174377	2529.43	43.9264
6.28319	10.8497	11.009	0.0438119	1.10833	0.0168031	2529.39	44.3494
6.28319	10.8997	11.103	0.0438142	1.10760	0.0172957	2527.58	44.2627
6.28319	10.9497	11.271	0.0438187	1.10758	0.0169058	2527.29	44.3848
6.28319	10.9997	11.440	0.0438073	1.10709	0.0177306	2526.78	44.5199
6.28319	11.0497	11.620	0.0438065	1.10670	0.0181734	2525.92	44.5508
6.28319	11.0997	11.774	0.0438052	1.10734	0.0188713	2527.42	44.3041
6.28319	11.1497	11.959	0.0438318	1.10706	0.0166380	2525.35	44.0433
6.28319	11.1997	12.124	0.0438738	1.10511	0.0181938	2518.42	44.0677
6.28319	11.2497	12.289	0.0437670	1.10442	0.0169918	2523.06	44.0887
6.28319	11.2997	12.452	0.0438069	1.10521	0.0178443	2522.52	44.1622
6.28319	11.3497	12.655	0.0438259	1.10508	0.0184491	2521.10	44.1575
6.28319	11.3997	12.815	0.0438250	1.10429	0.0177210	2519.39	44.3393
6.28319	11.4497	12.953	0.0438236	1.10336	0.0162588	2517.41	44.2258
6.28319	11.4997	13.126	0.0438615	1.10230	0.0166980	2512.78	44.1141
6.28319	11.5497	13.299	0.0437812	1.10132	0.0176871	2515.10	44.3781
6.28319	11.5997	13.433	0.0437938	1.10209	0.0170188	2516.18	44.3666
6.28319	11.6497	13.602	0.0438459	1.10155	0.0178328	2511.91	44.5628
6.28319	11.6997	13.748	0.0437954	1.10043	0.0171963	2512.28	44.6098
6.28319	11.7497	13.899	0.0437796	1.10104	0.0188173	2514.51	44.5027
6.28319	11.7997	14.061	0.0438578	1.10144	0.0175098	2510.99	44.4085
6.28319	11.8497	14.234	0.0438065	1.10005	0.0182218	2510.73	44.7636
6.28319	11.8997	14.385	0.0438292	1.09946	0.0183015	2508.10	45.1101
6.28319	11.9497	14.558	0.0438072	1.09918	0.0182729	2508.70	44.9137
6.28319	11.9997	14.686	0.0438373	1.09906	0.0182235	2506.72	45.2015
6.28319	12.0497	14.843	0.0438095	1.09722	0.0183467	2504.11	45.2396
6.28319	12.0997	15.002	0.0438154	1.09710	0.0179889	2503.51	45.3067
6.28319	12.1497	15.127	0.0438255	1.09747	0.0171910	2503.81	45.1217
6.28319	12.1997	15.216	0.0438280	1.09659	0.0183022	2501.61	45.2385
6.28319	12.2497	15.375	0.0438598	1.09560	0.0188719	2497.51	45.0661
6.28319	12.2997	15.557	0.0437802	1.09413	0.0167340	2498.78	44.9592
6.28319	12.3497	15.716	0.0438121	1.09467	0.0188923	2498.11	44.8944
6.28319	12.3997	15.855	0.0438051	1.09364	0.0181774	2496.18	44.8912
6.28319	12.4497	15.989	0.0438434	1.09365	0.0178220	2494.04	44.7715
6.28319	12.4997	16.149	0.0438040	1.09284	0.0177529	2494.46	44.7914
6.28319	12.5497	16.307	0.0437933	1.09316	0.0181414	2495.76	45.0263
6.28319	12.5997	16.432	0.0438483	1.09286	0.0173160	2491.99	45.0102
6.28319	12.6497	16.551	0.0438144	1.09198	0.0179481	2491.89	44.8353
6.28319	12.6997	16.688	0.0438092	1.09122	0.0180621	2490.43	45.0566
6.28319	12.7497	16.854	0.0438263	1.09134	0.0182937	2489.72	44.9516
6.28319	12.7997	17.022	0.0438205	1.09073	0.0177210	2488.70	44.9218
6.28319	12.8497	17.149	0.0438069	1.09030	0.0182196	2488.48	44.9431
6.28319	12.8997	17.335	0.0438091	1.08996	0.0187222	2487.53	45.0276
6.28319	12.9497	17.500	0.0438223	1.09001	0.0183047	2486.92	45.0774
6.28319	12.9997	17.641	0.0438271	1.08866	0.0180092	2483.59	45.0601
6.28319	13.0497	17.799	0.0438229	1.08872	0.0179957	2483.97	45.0092
6.28319	13.0997	17.998	0.0438074	1.08789	0.0184572	2482.92	45.0592
6.28319	13.1497	18.175	0.0438194	1.08739	0.0180762	2481.11	44.9943
6.28319	13.1997	18.315	0.0438028	1.08729	0.0180893	2481.83	45.0016
6.28319	13.2497	18.419	0.0438323	1.08671	0.0182912	2478.83	44.9762
6.28319	13.2997	18.580	0.0437995	1.08643	0.0185324	2480.03	44.8773
6.28319	13.3497	18.745	0.0438457	1.08585	0.0173239	2476.14	44.8090
6.28319	13.3997	18.909	0.0437960	1.08505	0.0177383	2477.12	44.6517
6.28319	13.4497	19.057	0.0438207	1.08499	0.0185598	2475.55	44.7807
6.28319	13.4997	19.209	0.0438116	1.08413	0.0180444	2474.14	44.8069
6.28319	13.5497	19.370	0.0438426	1.08310	0.0179307	2470.02	44.8620
6.28319	13.5997	19.496	0.0437809	1.08242	0.0180034	2471.96	44.9224
6.28319	13.6497	19.634	0.0438633	1.08288	0.0183040	2468.34	44.9454
6.28319	13.6997	19.811	0.0438041	1.08201	0.0180330	2469.70	45.0796
6.28319	13.7497	19.909	0.0438256	1.08115	0.0172508	2466.57	45.1828
6.28319	13.7997	20.052	0.0438120	1.08110	0.0188879	2467.15	45.3799
6.28319	13.8497	20.191	0.0438048	1.08056	0.0187089	2466.34	45.4989
6.28319	13.8997	20.389	0.0438530	1.08015	0.0185137	2462.68	45.6312
6.28319	13.9497	20.563	0.0438067	1.07916	0.0186289	2463.02	45.7659
6.28319	13.9997	20.697	0.0437973	1.07868	0.0186049	2462.45	45.9026
6.28319	14.0497	20.837	0.0438029	1.07873	0.0193241	2462.23	45.8684
6.28319	14.0997	20.957	0.0438347	1.07885	0.0183614	2460.78	45.9250
6.28319	14.1497	21.078	0.0438436	1.07744	0.0191044	2457.01	46.1825
6.28319	14.1997	21.178	0.0438252	1.07674	0.0195965	2456.43	46.1071
6.28319	14.2497	21.336	0.0437994	1.07648	0.0184662	2457.32	46.1336
6.28319	14.2997	21.504	0.0438583	1.07570	0.0186873	2452.25	46.2788
6.28319	14.3497	21.653	0.0437882	1.07430	0.0190622	2452.95	46.2623
6.28319	14.3997	21.834	0.0438569	1.07374	0.0183628	2447.87	46.2818
6.28319	14.4497	21.980	0.0437990	1.07259	0.0186660	2448.47	46.1712
6.28319	14.4997	22.116	0.0438241	1.07205	0.0189453	2445.81	46.3117
6.28319	14.5497	22.275	0.0437775	1.07253	0.0184873	2449.53	46.3573
6.28319	14.5997	22.450	0.0438583	1.07288	0.0190789	2445.78	46.3306
6.28319	14.6497	22.583	0.0438227	1.07150	0.0196112	2444.62	46.4351
6.28319	14.6997	22.699	0.0437887	1.07066	0.0186345	2444.64	46.3591
6.28319	14.7497	22.831	0.0438249	1.07091	0.0189044	2443.18	46.2611
6.28319	14.7997	22.979	0.0438540	1.07054	0.0187950	2440.70	46.5015
6.28319	14.8497	23.148	0.0438157	1.06833	0.0193962	2437.78	46.5869
6.28319	14.8997	23.310	0.0438135	1.06749	0.0195253	2435.97	46.5892
6.28319	14.9497	23.451	0.0438323	1.06713	0.0194330	2434.11	46.6620
6.28319	14.9997	23.576	0.0438291	1.06706	0.0193687	2434.13	46.6104
6.28319	15.0497	23.730	0.0437890	1.06610	0.0184997	2434.22	46.5061
6.28319	15.0997	23.877	0.0437968	1.06553	0.0186487	2432.47	46.6158
6.28319	15.1497	23.989	0.0438389	1.06593	0.0199927	2430.99	46.7936
6.28319	15.1997	24.157	0.0438302	1.06519	0.0192698	2429.81	46.9700
6.28319	15.2497	24.294	0.0438616	1.06407	0.0190938	2425.53	46.9411
6.28319	15.2997	24.439	0.0437857	1.06293	0.0191349	2427.12	46.9906
6.28319	15.3497	24.577	0.0437529	1.06354	0.0188808	2430.35	46.8594
6.28319	15.3997	24.699	0.0438783	1.06404	0.0191165	2424.54	46.8170
6.28319	15.4497	24.834	0.0438379	1.06204	0.0194914	2422.18	47.0294
6.28319	15.4997	25.027	0.0437724	1.06090	0.0202066	2423.18	47.5196
6.28319	15.5497	25.188	0.0438317	1.06121	0.0200110	2420.62	47.5137
6.28319	15.5997	25.350	0.0438519	1.06075	0.0193962	2418.49	47.4662
6.28319	15.6497	25.433	0.0438266	1.05864	0.0200022	2415.03	47.5521
6.28319	15.6997	25.581	0.0438455	1.05777	0.0188187	2412.06	47.7235
6.28319	15.7497	25.750	0.0437955	1.05751	0.0193494	2414.20	47.8771
6.28319	15.7997	25.898	0.0438252	1.05648	0.0199996	2410.18	47.9968
6.28319	15.8497	26.077	0.0438390	1.05490	0.0218485	2405.73	48.0364
6.28319	15.8997	26.234	0.0437859	1.05524	0.0200236	2409.51	48.0097
6.28319	15.9497	26.354	0.0438478	1.05533	0.0191162	2406.36	47.9986
6.28319	15.9997	26.483	0.0438020	1.05446	0.0201537	2406.83	48.0942
6.28319	16.0497	26.685	0.0438156	1.05479	0.0203786	2406.83	48.1018
6.28319	16.0997	26.870	0.0438508	1.05350	0.0199205	2401.99	48.3037
6.28319	16.1497	27.055	0.0438178	1.05130	0.0200543	2398.77	48.4775
6.28319	16.1997	27.163	0.0438091	1.05154	0.0198681	2399.81	48.6373
6.28319	16.2497	27.286	0.0438014	1.05172	0.0202115	2400.61	48.4461
6.28319	16.2997	27.452	0.0438260	1.05153	0.0202189	2398.84	48.5772
6.28319	16.3497	27.583	0.0438343	1.05077	0.0201924	2396.64	48.8079
6.28319	16.3997	27.714	0.0438060	1.04991	0.0200832	2396.25	48.8513
6.28319	16.4497	27.872	0.0438310	1.04935	0.0202213	2393.60	49.0209
6.28319	16.4997	28.001	0.0437943	1.04934	0.0206505	2395.56	49.0184
6.28319	16.5497	28.186	0.0439058	1.04827	0.0211163	2387.01	49.2523
6.28319	16.5997	28.334	0.0437866	1.04601	0.0207544	2388.38	49.5132
6.28319	16.6497	28.467	0.0437987	1.04577	0.0209140	2387.14	49.5391
6.28319	16.6997	28.626	0.0437967	1.04588	0.0208367	2387.52	49.6545
6.28319	16.7497	28.782	0.0438498	1.04613	0.0207413	2385.21	49.8159
6.28319	16.7997	28.945	0.0438322	1.04496	0.0216848	2383.43	50.1587
6.28319	16.8497	29.081	0.0437975	1.04431	0.0201300	2383.93	50.1945
6.28319	16.8997	29.223	0.0438579	1.04283	0.0214559	2377.19	50.3583
6.28319	16.9497	29.374	0.0437918	1.04231	0.0216795	2379.60	50.1736
6.28319	16.9997	29.559	0.0438494	1.04209	0.0207068	2376.01	50.2285
6.28319	17.0497	29.722	0.0438069	1.03991	0.0211103	2373.31	50.2793
6.28319	17.0997	29.867	0.0438207	1.03987	0.0213972	2372.47	50.3587
6.28319	17.1497	29.989	0.0438181	1.04009	0.0223991	2373.06	50.4815
6.28319	17.1997	30.148	0.0438180	1.03889	0.0207201	2370.42	50.4785
6.28319	17.2497	30.343	0.0438202	1.03806	0.0220047	2368.34	50.7950
6.28319	17.2997	30.487	0.0438707	1.03718	0.0201245	2363.69	50.8531
6.28319	17.3497	30.667	0.0438227	1.03557	0.0212936	2362.55	51.0037
6.28319	17.3997	30.848	0.0438019	1.03529	0.0214457	2363.04	51.3261
6.28319	17.4497	30.966	0.0438174	1.03461	0.0215879	2360.64	51.4780
6.28319	17.4997	31.117	0.0438820	1.03470	0.0217990	2357.36	51.5585
6.28319	17.5497	31.262	0.0437967	1.03228	0.0219877	2356.40	51.5256
6.28319	17.5997	31.371	0.0438139	1.03207	0.0222394	2355.01	51.8123
6.28319	17.6497	31.486	0.0438069	1.03088	0.0220606	2352.65	51.8074
6.28319	17.6997	31.653	0.0438250	1.03204	0.0226693	2354.30	52.3062
6.28319	17.7497	31.838	0.0438032	1.03087	0.0227236	2352.81	52.4798
6.28319	17.7997	31.990	0.0438148	1.03062	0.0225257	2351.63	52.7268
6.28319	17.8497	32.129	0.0438459	1.02969	0.0221418	2347.86	52.8809
6.28319	17.8997	32.294	0.0438133	1.02920	0.0224152	2348.47	53.0670
6.28319	17.9497	32.433	0.0438183	1.02943	0.0232604	2348.68	53.2011
6.28319	17.9997	32.640	0.0438711	1.02722	0.0227981	2340.84	53.4248
6.28319	18.0497	32.747	0.0437933	1.02596	0.0230625	2342.11	53.5648
6.28319	18.0997	32.879	0.0438243	1.02549	0.0221852	2339.43	53.6297
6.28319	18.1497	33.042	0.0438354	1.02491	0.0232202	2337.45	53.7812
6.28319	18.1997	33.177	0.0438027	1.02293	0.0228517	2334.71	53.8483
6.28319	18.2497	33.318	0.0438077	1.02374	0.0230903	2336.27	54.0692
6.28319	18.2997	33.481	0.0438167	1.02383	0.0230772	2336.01	54.2788
6.28319	18.3497	33.664	0.0438753	1.02300	0.0236371	2330.94	54.3889
6.28319	18.3997	33.793	0.0437814	1.02081	0.0234082	2330.97	54.6426
6.28319	18.4497	33.932	0.0438232	1.02130	0.0234357	2329.86	54.7500
6.28319	18.4997	34.092	0.0438585	1.01966	0.0239189	2324.23	54.9584
6.28319	18.5497	34.220	0.0438305	1.01886	0.0233213	2323.92	55.1135
6.28319	18.5997	34.383	0.0438248	1.01786	0.0238570	2321.90	55.2819
6.28319	18.6497	34.549	0.0438153	1.01712	0.0239577	2320.71	55.5506
6.28319	18.6997	34.676	0.0437963	1.01619	0.0240138	2319.60	55.6470
6.28319	18.7497	34.818	0.0438678	1.01564	0.0248431	2314.53	55.7318
6.28319	18.7997	34.994	0.0438273	1.01358	0.0241782	2312.00	55.8577
6.28319	18.8497	35.161	0.0437994	1.01350	0.0236859	2313.30	56.0680
6.28319	18.8997	35.288	0.0438345	1.01338	0.0246806	2311.14	56.2518
6.28319	18.9497	35.436	0.0438453	1.01248	0.0240833	2308.53	56.5301
6.28319	18.9997	35.602	0.0437980	1.01200	0.0250090	2309.88	56.6024
6.28319	19.0497	35.734	0.0438108	1.01151	0.0241224	2308.13	56.7511
6.28319	19.0997	35.838	0.0438558	1.01113	0.0244788	2304.90	56.7179
6.28319	19.1497	36.008	0.0438134	1.00944	0.0243451	2303.26	56.7747
6.28319	19.1997	36.161	0.0438304	1.00816	0.0250167	2299.42	56.8185
6.28319	19.2497	36.300	0.0438325	1.00761	0.0254944	2298.03	56.9506
6.28319	19.2997	36.436	0.0438230	1.00691	0.0254155	2296.94	57.1423
6.28319	19.3497	36.619	0.0437988	1.00531	0.0245327	2294.60	57.3023
6.28319	19.3997	36.809	0.0438660	1.00627	0.0253213	2293.23	57.5775
6.28319	19.4497	36.945	0.0438294	1.00441	0.0242705	2290.96	58.0484
6.28319	19.4997	37.075	0.0438208	1.00244	0.0255134	2286.84	58.3491
6.28319	19.5497	37.228	0.0438296	1.00182	0.0247021	2285.02	58.6462
6.28319	19.5997	37.445	0.0438388	1.00148	0.0248218	2283.75	58.9915
6.28319	19.6497	37.585	0.0438193	0.999706	0.0265172	2280.62	59.1671
6.28319	19.6997	37.748	0.0438431	0.998365	0.0252817	2276.40	59.3778
6.28319	19.7497	37.889	0.0438074	0.997684	0.0270041	2276.60	59.6374
6.28319	19.7997	38.012	0.0438347	0.997453	0.0277877	2274.61	59.9060
6.28319	19.8497	38.130	0.0438613	0.996422	0.0271730	2270.92	60.2456
6.28319	19.8997	38.258	0.0438009	0.994700	0.0265979	2270.16	60.5723
6.28319	19.9497	38.434	0.0438158	0.994319	0.0267271	2268.51	61.0165
6.28319	19.9997	38.584	0.0438327	0.993653	0.0271092	2266.09	61.4873
6.28319	20.0497	38.716	0.0438253	0.992764	0.0269260	2264.45	61.7629
